# Wavelength in nm, PD current in uA probably.  Forgot to take uncertainties.
655.8	-0.19376
655.8005	-0.19391
655.801	-0.19393
655.8015	-0.19371
655.802	-0.19396
655.8025	-0.19383
655.803	-0.1937
655.8035	-0.19408
655.804	-0.19383
655.8045	-0.19385
655.805	-0.19371
655.8055	-0.1941
655.806	-0.1939
655.8065	-0.19383
655.807	-0.19383
655.8075	-0.19405
655.808	-0.19424
655.8085	-0.19404
655.809	-0.19408
655.8095	-0.19389
655.81	-0.19401
655.8105	-0.19407
655.811	-0.19399
655.8115	-0.19389
655.812	-0.19391
655.8125	-0.1939
655.813	-0.19396
655.8135	-0.19409
655.814	-0.19419
655.8145	-0.1945
655.815	-0.19397
655.8155	-0.19387
655.816	-0.19382
655.8165	-0.19399
655.817	-0.19389
655.8175	-0.19384
655.818	-0.19402
655.8185	-0.19399
655.819	-0.19391
655.8195	-0.19416
655.82	-0.19404
655.8205	-0.19406
655.821	-0.19416
655.8215	-0.19385
655.822	-0.19418
655.8225	-0.1938
655.823	-0.19392
655.8235	-0.19394
655.824	-0.19393
655.8245	-0.1939
655.825	-0.19396
655.8255	-0.19401
655.826	-0.19408
655.8265	-0.19407
655.827	-0.19398
655.8275	-0.1939
655.828	-0.19407
655.8285	-0.19388
655.829	-0.19397
655.8295	-0.19402
655.83	-0.19391
655.8305	-0.19424
655.831	-0.19424
655.8315	-0.19391
655.832	-0.19402
655.8325	-0.19391
655.833	-0.19404
655.8335	-0.19415
655.834	-0.19402
655.8345	-0.19411
655.835	-0.19519
655.8355	-0.19394
655.836	-0.19428
655.8365	-0.19394
655.837	-0.19387
655.8375	-0.19398
655.838	-0.1942
655.8385	-0.19433
655.839	-0.19385
655.8395	-0.19399
655.84	-0.19385
655.8405	-0.19418
655.841	-0.19407
655.8415	-0.19411
655.842	-0.194
655.8425	-0.19399
655.843	-0.19413
655.8435	-0.19375
655.844	-0.19394
655.8445	-0.19383
655.845	-0.19398
655.8455	-0.19407
655.846	-0.19395
655.8465	-0.19397
655.847	-0.19382
655.8475	-0.19414
655.848	-0.19405
655.8485	-0.19409
655.849	-0.19441
655.8495	-0.19416
655.85	-0.19403
655.8505	-0.19403
655.851	-0.19401
655.8515	-0.19374
655.852	-0.19407
655.8525	-0.19394
655.853	-0.19418
655.8535	-0.19391
655.854	-0.19393
655.8545	-0.19418
655.855	-0.19413
655.8555	-0.19428
655.856	-0.19432
655.8565	-0.194
655.857	-0.19397
655.8575	-0.19399
655.858	-0.19421
655.8585	-0.19407
655.859	-0.19425
655.8595	-0.19412
655.86	-0.19416
655.8605	-0.19407
655.861	-0.19403
655.8615	-0.19408
655.862	-0.19424
655.8625	-0.19411
655.863	-0.19421
655.8635	-0.19407
655.864	-0.19428
655.8645	-0.19409
655.865	-0.19388
655.8655	-0.19407
655.866	-0.19405
655.8665	-0.19456
655.867	-0.19411
655.8675	-0.19416
655.868	-0.19411
655.8685	-0.19411
655.869	-0.19442
655.8695	-0.19432
655.87	-0.19411
655.8705	-0.19443
655.871	-0.1944
655.8715	-0.19446
655.872	-0.19408
655.8725	-0.19458
655.873	-0.1942
655.8735	-0.19454
655.874	-0.19437
655.8745	-0.19421
655.875	-0.19428
655.8755	-0.19453
655.876	-0.19449
655.8765	-0.19405
655.877	-0.19485
655.8775	-0.19407
655.878	-0.19456
655.8785	-0.19432
655.879	-0.19449
655.8795	-0.19468
655.88	-0.19439
655.8805	-0.1947
655.881	-0.19467
655.8815	-0.19453
655.882	-0.19449
655.8825	-0.19452
655.883	-0.19476
655.8835	-0.19473
655.884	-0.19434
655.8845	-0.1943
655.885	-0.19482
655.8855	-0.19468
655.886	-0.19434
655.8865	-0.19457
655.887	-0.1948
655.8875	-0.19468
655.888	-0.19455
655.8885	-0.19503
655.889	-0.19516
655.8895	-0.19438
655.89	-0.19496
655.8905	-0.19499
655.891	-0.19505
655.8915	-0.19514
655.892	-0.19483
655.8925	-0.19469
655.893	-0.19467
655.8935	-0.19548
655.894	-0.19518
655.8945	-0.19529
655.895	-0.19461
655.8955	-0.19489
655.896	-0.19469
655.8965	-0.1951
655.897	-0.19546
655.8975	-0.19516
655.898	-0.19552
655.8985	-0.19556
655.899	-0.19613
655.8995	-0.19552
655.9	-0.19558
655.9005	-0.19583
655.901	-0.19631
655.9015	-0.19583
655.902	-0.19586
655.9025	-0.19585
655.903	-0.19592
655.9035	-0.19669
655.904	-0.19622
655.9045	-0.19637
655.905	-0.19714
655.9055	-0.19683
655.906	-0.19683
655.9065	-0.19721
655.907	-0.19762
655.9075	-0.19751
655.908	-0.1975
655.9085	-0.19827
655.909	-0.19834
655.9095	-0.19876
655.91	-0.19874
655.9105	-0.1996
655.911	-0.19993
655.9115	-0.2001
655.912	-0.19983
655.9125	-0.20054
655.913	-0.201
655.9135	-0.20156
655.914	-0.20178
655.9145	-0.2021
655.915	-0.20327
655.9155	-0.20329
655.916	-0.20439
655.9165	-0.20558
655.917	-0.20501
655.9175	-0.20655
655.918	-0.20805
655.9185	-0.20792
655.919	-0.21037
655.9195	-0.2093
655.92	-0.2109
655.9205	-0.21157
655.921	-0.21074
655.9215	-0.21407
655.922	-0.21689
655.9225	-0.21681
655.923	-0.2194
655.9235	-0.21915
655.924	-0.22177
655.9245	-0.22341
655.925	-0.22369
655.9255	-0.22507
655.926	-0.22857
655.9265	-0.23059
655.927	-0.23167
655.9275	-0.23418
655.928	-0.23558
655.9285	-0.23939
655.929	-0.24209
655.9295	-0.24301
655.93	-0.24463
655.9305	-0.24391
655.931	-0.2505
655.9315	-0.24789
655.932	-0.2512
655.9325	-0.25264
655.933	-0.25208
655.9335	-0.25199
655.934	-0.25463
655.9345	-0.25444
655.935	-0.25724
655.9355	-0.26152
655.936	-0.25477
655.9365	-0.2564
655.937	-0.26038
655.9375	-0.26315
655.938	-0.26273
655.9385	-0.25898
655.939	-0.25952
655.9395	-0.2631
655.94	-0.26071
655.9405	-0.2636
655.941	-0.26328
655.9415	-0.26508
655.942	-0.2634
655.9425	-0.26867
655.943	-0.26544
655.9435	-0.26933
655.944	-0.26419
655.9445	-0.2629
655.945	-0.26692
655.9455	-0.26521
655.946	-0.26911
655.9465	-0.26034
655.947	-0.26264
655.9475	-0.26163
655.948	-0.25985
655.9485	-0.25632
655.949	-0.25466
655.9495	-0.25369
655.95	-0.25279
655.9505	-0.2477
655.951	-0.24945
655.9515	-0.24858
655.952	-0.24406
655.9525	-0.24239
655.953	-0.24079
655.9535	-0.23632
655.954	-0.23451
655.9545	-0.233
655.955	-0.2329
655.9555	-0.22916
655.956	-0.22754
655.9565	-0.22678
655.957	-0.22724
655.9575	-0.22342
655.958	-0.22334
655.9585	-0.22003
655.959	-0.21928
655.9595	-0.22016
655.96	-0.21717
655.9605	-0.21754
655.961	-0.21637
655.9615	-0.21796
655.962	-0.21589
655.9625	-0.21421
655.963	-0.21229
655.9635	-0.21132
655.964	-0.21022
655.9645	-0.20748
655.965	-0.20824
655.9655	-0.20775
655.966	-0.20612
655.9665	-0.20595
655.967	-0.2068
655.9675	-0.20458
655.968	-0.20369
655.9685	-0.20467
655.969	-0.20437
655.9695	-0.20229
655.97	-0.20196
655.9705	-0.20245
655.971	-0.20101
655.9715	-0.20048
655.972	-0.20006
655.9725	-0.19989
655.973	-0.20015
655.9735	-0.20039
655.974	-0.19876
655.9745	-0.19857
655.975	-0.1988
655.9755	-0.19857
655.976	-0.19775
655.9765	-0.19824
655.977	-0.19746
655.9775	-0.19696
655.978	-0.19752
655.9785	-0.19655
655.979	-0.19644
655.9795	-0.19672
655.98	-0.19651
655.9805	-0.19599
655.981	-0.19573
655.9815	-0.19608
655.982	-0.19595
655.9825	-0.19531
655.983	-0.19532
655.9835	-0.19557
655.984	-0.1953
655.9845	-0.19555
655.985	-0.19511
655.9855	-0.19551
655.986	-0.19544
655.9865	-0.19548
655.987	-0.19543
655.9875	-0.19474
655.988	-0.19488
655.9885	-0.19474
655.989	-0.19518
655.9895	-0.19488
655.99	-0.19524
655.9905	-0.19482
655.991	-0.19504
655.9915	-0.19525
655.992	-0.19478
655.9925	-0.19493
655.993	-0.19489
655.9935	-0.19469
655.994	-0.195
655.9945	-0.19493
655.995	-0.19485
655.9955	-0.19446
655.996	-0.19462
655.9965	-0.1943
655.997	-0.19453
655.9975	-0.19498
655.998	-0.19444
655.9985	-0.19515
655.999	-0.19502
655.9995	-0.19469
656	-0.19481
656.0005	-0.19452
656.001	-0.19467
656.0015	-0.19441
656.002	-0.19443
656.0025	-0.19525
656.003	-0.19463
656.0035	-0.19496
656.004	-0.19464
656.0045	-0.19464
656.005	-0.19437
656.0055	-0.19463
656.006	-0.19431
656.0065	-0.19502
656.007	-0.19449
656.0075	-0.19469
656.008	-0.19494
656.0085	-0.19428
656.009	-0.19454
656.0095	-0.1948
656.01	-0.19444
656.0105	-0.19469
656.011	-0.1946
656.0115	-0.19484
656.012	-0.19475
656.0125	-0.19497
656.013	-0.19485
656.0135	-0.19507
656.014	-0.1946
656.0145	-0.19506
656.015	-0.1946
656.0155	-0.19458
656.016	-0.19488
656.0165	-0.1945
656.017	-0.19469
656.0175	-0.19489
656.018	-0.19479
656.0185	-0.19475
656.019	-0.19485
656.0195	-0.19447
656.02	-0.19514
656.0205	-0.19484
656.021	-0.1947
656.0215	-0.19468
656.022	-0.19452
656.0225	-0.19551
656.023	-0.19477
656.0235	-0.1948
656.024	-0.19463
656.0245	-0.19538
656.025	-0.19487
656.0255	-0.19486
656.026	-0.19482
656.0265	-0.19491
656.027	-0.1946
656.0275	-0.19486
656.028	-0.19478
656.0285	-0.19465
656.029	-0.19505
656.0295	-0.19488
656.03	-0.19498
656.0305	-0.19496
656.031	-0.19519
656.0315	-0.1952
656.032	-0.19491
656.0325	-0.19479
656.033	-0.19478
656.0335	-0.19511
656.034	-0.19494
656.0345	-0.19521
656.035	-0.19489
656.0355	-0.19513
656.036	-0.19495
656.0365	-0.19536
656.037	-0.19469
656.0375	-0.19511
656.038	-0.19551
656.0385	-0.19506
656.039	-0.19519
656.0395	-0.1946
656.04	-0.1954
656.0405	-0.19536
656.041	-0.19533
656.0415	-0.19515
656.042	-0.19528
656.0425	-0.19547
656.043	-0.19532
656.0435	-0.19529
656.044	-0.19563
656.0445	-0.19482
656.045	-0.19502
656.0455	-0.19549
656.046	-0.19538
656.0465	-0.19502
656.047	-0.19589
656.0475	-0.1958
656.048	-0.19602
656.0485	-0.19585
656.049	-0.1954
656.0495	-0.19556
656.05	-0.19623
656.0505	-0.19576
656.051	-0.19538
656.0515	-0.1954
656.052	-0.19575
656.0525	-0.19593
656.053	-0.196
656.0535	-0.19667
656.054	-0.19655
656.0545	-0.19572
656.055	-0.19547
656.0555	-0.19614
656.056	-0.19589
656.0565	-0.19613
656.057	-0.1962
656.0575	-0.19643
656.058	-0.19589
656.0585	-0.19691
656.059	-0.19594
656.0595	-0.19636
656.06	-0.19625
656.0605	-0.19687
656.061	-0.1962
656.0615	-0.19716
656.062	-0.19702
656.0625	-0.19752
656.063	-0.19732
656.0635	-0.19677
656.064	-0.19701
656.0645	-0.19707
656.065	-0.19845
656.0655	-0.19724
656.066	-0.19793
656.0665	-0.19882
656.067	-0.19829
656.0675	-0.19874
656.068	-0.19804
656.0685	-0.19886
656.069	-0.19898
656.0695	-0.19816
656.07	-0.19867
656.0705	-0.19898
656.071	-0.20003
656.0715	-0.19977
656.072	-0.20009
656.0725	-0.20088
656.073	-0.1999
656.0735	-0.20071
656.074	-0.20077
656.0745	-0.20215
656.075	-0.20053
656.0755	-0.2023
656.076	-0.20262
656.0765	-0.20521
656.077	-0.20297
656.0775	-0.20383
656.078	-0.20433
656.0785	-0.20451
656.079	-0.20509
656.0795	-0.20542
656.08	-0.20586
656.0805	-0.20681
656.081	-0.20733
656.0815	-0.20841
656.082	-0.20913
656.0825	-0.21069
656.083	-0.21018
656.0835	-0.21193
656.084	-0.21357
656.0845	-0.21472
656.085	-0.21368
656.0855	-0.21695
656.086	-0.21859
656.0865	-0.21766
656.087	-0.22086
656.0875	-0.22026
656.088	-0.22356
656.0885	-0.22388
656.089	-0.2263
656.0895	-0.22995
656.09	-0.23118
656.0905	-0.23415
656.091	-0.23768
656.0915	-0.24014
656.092	-0.24055
656.0925	-0.24636
656.093	-0.24926
656.0935	-0.25374
656.094	-0.25434
656.0945	-0.26122
656.095	-0.26578
656.0955	-0.26725
656.096	-0.26959
656.0965	-0.27532
656.097	-0.27642
656.0975	-0.29104
656.098	-0.29419
656.0985	-0.29702
656.099	-0.30967
656.0995	-0.3098
656.1	-0.316
656.1005	-0.32424
656.101	-0.32885
656.1015	-0.3448
656.102	-0.35064
656.1025	-0.3568
656.103	-0.36704
656.1035	-0.3752
656.104	-0.37617
656.1045	-0.38431
656.105	-0.39425
656.1055	-0.39976
656.106	-0.4066
656.1065	-0.41584
656.107	-0.42847
656.1075	-0.42643
656.108	-0.44484
656.1085	-0.43715
656.109	-0.45107
656.1095	-0.45657
656.11	-0.47255
656.1105	-0.47019
656.111	-0.47539
656.1115	-0.48228
656.112	-0.48926
656.1125	-0.48424
656.113	-0.49522
656.1135	-0.50478
656.114	-0.49862
656.1145	-0.50576
656.115	-0.50891
656.1155	-0.5151
656.116	-0.52032
656.1165	-0.53275
656.117	-0.52193
656.1175	-0.5097
656.118	-0.52978
656.1185	-0.52966
656.119	-0.53881
656.1195	-0.53186
656.12	-0.53557
656.1205	-0.53332
656.121	-0.53603
656.1215	-0.54242
656.122	-0.52825
656.1225	-0.51577
656.123	-0.52591
656.1235	-0.51632
656.124	-0.52453
656.1245	-0.51689
656.125	-0.51017
656.1255	-0.49702
656.126	-0.50158
656.1265	-0.49833
656.127	-0.48468
656.1275	-0.48079
656.128	-0.47238
656.1285	-0.47084
656.129	-0.45622
656.1295	-0.45577
656.13	-0.45228
656.1305	-0.43515
656.131	-0.4248
656.1315	-0.42032
656.132	-0.42177
656.1325	-0.41274
656.133	-0.39651
656.1335	-0.3881
656.134	-0.37635
656.1345	-0.36214
656.135	-0.35672
656.1355	-0.35925
656.136	-0.34666
656.1365	-0.3334
656.137	-0.33601
656.1375	-0.32841
656.138	-0.32489
656.1385	-0.31666
656.139	-0.30538
656.1395	-0.30945
656.14	-0.29975
656.1405	-0.29384
656.141	-0.28596
656.1415	-0.28166
656.142	-0.27709
656.1425	-0.27621
656.143	-0.27023
656.1435	-0.26807
656.144	-0.25984
656.1445	-0.25926
656.145	-0.25948
656.1455	-0.25303
656.146	-0.25017
656.1465	-0.24405
656.147	-0.24214
656.1475	-0.24076
656.148	-0.23806
656.1485	-0.23678
656.149	-0.23298
656.1495	-0.23195
656.15	-0.22916
656.1505	-0.22617
656.151	-0.22444
656.1515	-0.22186
656.152	-0.21935
656.1525	-0.21886
656.153	-0.2169
656.1535	-0.21261
656.154	-0.21499
656.1545	-0.2144
656.155	-0.21111
656.1555	-0.21104
656.156	-0.20827
656.1565	-0.20872
656.157	-0.20855
656.1575	-0.20661
656.158	-0.20574
656.1585	-0.20509
656.159	-0.20563
656.1595	-0.2044
656.16	-0.2034
656.1605	-0.20213
656.161	-0.20315
656.1615	-0.20096
656.162	-0.20064
656.1625	-0.19995
656.163	-0.19958
656.1635	-0.19927
656.164	-0.19937
656.1645	-0.19924
656.165	-0.19918
656.1655	-0.19904
656.166	-0.19803
656.1665	-0.19851
656.167	-0.19785
656.1675	-0.19703
656.168	-0.19781
656.1685	-0.19682
656.169	-0.19762
656.1695	-0.19763
656.17	-0.19703
656.1705	-0.19713
656.171	-0.19633
656.1715	-0.19712
656.172	-0.19639
656.1725	-0.19647
656.173	-0.19605
656.1735	-0.19606
656.174	-0.19594
656.1745	-0.19613
656.175	-0.1965
656.1755	-0.19585
656.176	-0.19614
656.1765	-0.19582
656.177	-0.19588
656.1775	-0.19538
656.178	-0.19554
656.1785	-0.19588
656.179	-0.19565
656.1795	-0.19575
656.18	-0.19541
656.1805	-0.19547
656.181	-0.19522
656.1815	-0.1954
656.182	-0.19541
656.1825	-0.19556
656.183	-0.19559
656.1835	-0.19536
656.184	-0.19543
656.1845	-0.19504
656.185	-0.19576
656.1855	-0.19524
656.186	-0.19521
656.1865	-0.19483
656.187	-0.19503
656.1875	-0.19541
656.188	-0.19508
656.1885	-0.19496
656.189	-0.19488
656.1895	-0.19514
656.19	-0.19519
656.1905	-0.19491
656.191	-0.19545
656.1915	-0.19496
656.192	-0.19496
656.1925	-0.19457
656.193	-0.19496
656.1935	-0.19466
656.194	-0.19501
656.1945	-0.1951
656.195	-0.19516
656.1955	-0.1947
656.196	-0.19496
656.1965	-0.1948
656.197	-0.19465
656.1975	-0.19493
656.198	-0.19476
656.1985	-0.19475
656.199	-0.1953
656.1995	-0.1954
656.2	-0.19439
